File: data/xrd/rs_1.42_xrd.dat
2.29256 0.060215
2.26987 0.120216
2.24764 0.370659
2.22583 5.58136
2.20444 1.00783
2.18346 0.198852
2.16288 0.0850871
2.14268 0.0494733
2.12285 0.0342622
2.10339 0.0267327
2.08428 0.0228353
2.06552 0.0210163
2.04709 0.0206705
2.02899 0.0216967
2.01121 0.0244653
1.99373 0.0301949
1.97656 0.042493
1.95968 0.074697
1.94309 0.210079
1.92677 3.13599
1.91073 0.526976
1.89496 0.116957
1.87944 0.0596123
1.86417 0.0430814
1.84915 0.0378263
1.83437 0.0375732
1.81983 0.0407666
1.80552 0.0476142
1.79142 0.0598567
1.77755 0.082129
1.76389 0.127322
1.75044 0.241119
1.7372 0.689283
1.72415 8.02477
1.7113 2.54995
1.69863 0.462575
1.68616 0.205029
1.67387 0.131527
1.66175 0.10616
1.64981 0.101468
1.63804 0.111192
1.62644 0.137673
1.615 0.193291
1.60372 0.317244
1.5926 0.664531
1.58163 2.35501
1.57081 60.9827
1.56014 3.1676
1.54961 0.769817
1.53923 0.346313
1.52898 0.202056
1.51887 0.136936
1.50889 0.102772
1.49904 0.0833485
1.48932 0.0720288
1.47973 0.0657555
1.47026 0.063052
1.46091 0.0632595
1.45168 0.0662397
1.44256 0.0722969
1.43356 0.0822594
1.42467 0.0977602
1.41589 0.121905
1.40722 0.160864
1.39865 0.228088
1.39019 0.357359
1.38183 0.654535
1.37357 1.60618
1.36541 8.63469
1.35734 38.9239
1.34937 2.81504
1.3415 0.919166
1.33371 0.459515
1.32602 0.284449
1.31841 0.204365
1.31089 0.169435
1.30346 0.170173
1.29611 0.238908
1.28884 0.700031
1.28166 15.1282
1.27455 0.614499
1.26752 0.201109
1.26057 0.12075
1.2537 0.0968104
1.2469 0.0951991
1.24017 0.113965
1.23352 0.173589
1.22694 0.384677
1.22043 2.08278
1.21398 6.81138
1.20761 0.579975
1.2013 0.20626
1.19506 0.113013
1.18888 0.0781656
1.18277 0.0650505
1.17672 0.067322
1.17073 0.0997387
1.1648 0.323422
1.15893 5.14733
1.15312 0.223805
1.14737 0.0752203
1.14168 0.0432681
1.13604 0.0315591
1.13046 0.0267632
1.12493 0.0264915
1.11946 0.0349389
1.11404 0.111433
1.10867 0.484805
1.10336 0.04692
1.09809 0.024979
1.09288 0.020695
1.08771 0.0211715
1.0826 0.0260395
1.07753 0.0416134
1.07251 0.112774
1.06753 1.95974
1.06261 0.225785
1.05772 0.0575866
1.05289 0.0337035
1.04809 0.0295188
1.04334 0.0348604
1.03864 0.0564093
1.03397 0.149031
1.02935 1.67175
1.02477 0.548963
1.02023 0.0984796
1.01573 0.0420728
1.01127 0.0247506
1.00685 0.0172256
1.00247 0.0133034
0.998123 0.011039
0.993817 0.00967385
0.989547 0.00887938
0.985315 0.00852623
0.981119 0.00862469
0.976958 0.00938376
0.972833 0.0115692
0.968743 0.0186151
0.964687 0.0637293
0.960665 0.543195
0.956677 0.0360194
0.952722 0.0183808
0.9488 0.0171442
0.94491 0.0220817
0.941052 0.0387457
0.937225 0.114853
0.93343 2.08342
0.929666 0.236397
0.925931 0.0550682
0.922227 0.0285638
0.918553 0.0227453
0.914908 0.027164
0.911292 0.0581325
0.907705 0.56454
0.904146 0.214387
0.900614 0.0411693
0.897111 0.0209454
0.893635 0.0165624
0.890186 0.0192079
0.886763 0.0395182
0.883367 0.400027
0.879997 0.126418
0.876653 0.027152
0.873334 0.0154199
0.870041 0.0136957
0.866772 0.0180395
0.863528 0.0450657
0.860308 0.91989
0.857113 0.0691384
0.853941 0.0218334
0.850793 0.0160741
0.847668 0.0189626
0.844566 0.0355581
0.841487 0.159367
0.838431 0.922808
0.835396 0.0637872
0.832384 0.0247643
0.829394 0.0177337
0.826425 0.0208752
0.823477 0.0486157
0.820551 0.73092
0.817645 0.107362
0.81476 0.0245244
0.811896 0.0121658
0.809052 0.00820623
0.806228 0.00656724
0.803423 0.00591676
0.800638 0.00589585
0.797873 0.00652159
0.795127 0.00820805
0.792399 0.0124574
0.789691 0.0261972
0.787001 0.122487
0.78433 0.720615
0.781677 0.0489786
0.779041 0.0185459
0.776424 0.0129009
0.773824 0.0152818
0.771242 0.0462695
0.768677 0.417436
0.76613 0.0261633
0.763599 0.0130522
0.761085 0.0133376
0.758588 0.0235886
0.756107 0.101211
0.753643 0.702273
0.751194 0.0440166
0.748762 0.0161243
0.746346 0.0108445
0.743945 0.0131087
0.74156 0.0539125
0.73919 0.116384
0.736835 0.0135385
0.734496 0.00615828
0.732171 0.0041639
0.729861 0.00338438
0.727566 0.00309215
0.725286 0.00312594
0.723019 0.00354945
0.720767 0.00475982
0.71853 0.00849042
0.716306 0.0284901
0.714096 0.685226
0.7119 0.0277057
0.709717 0.00897117
0.707548 0.00632635
0.705392 0.00887106
0.703249 0.0477498
0.70112 0.0586924
0.699004 0.00818441
0.6969 0.00371864
0.694809 0.00243517
0.692731 0.00188627
0.690665 0.00160976
0.688612 0.00147662
0.686571 0.00146455
0.684542 0.00166218
0.682526 0.00270573
0.680521 0.019832
0.678528 0.0077112
0.676547 0.00225585
0.674577 0.00183281
0.67262 0.00254116
0.670673 0.0102158
0.668738 0.0249131
0.666814 0.00309081
0.664902 0.00176103
0.663 0.00180414
0.66111 0.0043477
0.65923 0.041372
0.657361 0.00267047
0.655503 0.00135311
0.653655 0.00120667
0.651818 0.00203161
0.649991 0.0321885
0.648175 0.00181671
0.646369 0.000932638
0.644573 0.000783413
0.642787 0.000934814
0.641011 0.00910931
0.639245 0.000915234
0.637489 0.000620346
0.635743 0.000567145
0.634006 0.000614661
0.632279 0.00342141
0.630561 0.000595144
0.628853 0.000492148
0.627154 0.000473717
0.625464 0.00051267
0.623784 0.00214059
0.622113 0.000481448
0.620451 0.000426261
0.618797 0.000409281
0.617153 0.000398908
0.615517 0.000390849
0.613891 0.000383994
0.612273 0.000377979
0.610663 0.000372716
0.609062 0.000368318
0.60747 0.00036521
0.605886 0.000364636
0.60431 0.00037098
0.602743 0.000408814
0.601184 0.0010079
0.599633 0.000635374
0.59809 0.000386249
0.596555 0.000365606
0.595028 0.000413019
0.593509 0.00248988
0.591998 0.000428278
0.590495 0.000340807
0.588999 0.000326264
0.587511 0.000352175
0.586031 0.000495823
0.584558 0.000312368
0.583093 0.000299388
0.581635 0.000296275
0.580185 0.000348841
0.578742 0.000298181
0.577306 0.000282261
0.576162 0.000278084