File: data/xrd/rs_1.43_xrd.dat
2.29256 0.0947054
2.26987 0.248517
2.24764 1.7972
2.22583 2.28525
2.20444 0.272846
2.18346 0.101527
2.16288 0.0549921
2.14268 0.0363303
2.12285 0.0273418
2.10339 0.0226738
2.08428 0.020348
2.06552 0.019578
2.04709 0.0201465
2.02899 0.0222879
2.01121 0.0269429
1.99373 0.0368958
1.97656 0.0619401
1.95968 0.156295
1.94309 1.41444
1.92677 0.76663
1.91073 0.12863
1.89496 0.0596316
1.87944 0.0408394
1.86417 0.0345957
1.84915 0.0334931
1.83437 0.0356348
1.81983 0.0409559
1.80552 0.050747
1.79142 0.0686287
1.77755 0.104643
1.76389 0.19365
1.75044 0.529186
1.7372 5.10394
1.72415 2.59057
1.7113 0.4205
1.69863 0.181354
1.68616 0.115331
1.67387 0.0929452
1.66175 0.0889574
1.64981 0.0977008
1.63804 0.121254
1.62644 0.170675
1.615 0.281119
1.60372 0.592867
1.5926 2.14193
1.58163 56.9605
1.57081 2.63902
1.56014 0.657482
1.54961 0.298827
1.53923 0.175654
1.52898 0.119895
1.51887 0.0906723
1.50889 0.0741577
1.49904 0.0646789
1.48932 0.0596304
1.47973 0.0577703
1.47026 0.0585734
1.46091 0.0619859
1.45168 0.0683757
1.44256 0.0786354
1.43356 0.094494
1.42467 0.119249
1.41589 0.159542
1.40722 0.230157
1.39865 0.369484
1.39019 0.704412
1.38183 1.88174
1.37357 13.8204
1.36541 17.2402
1.35734 2.04791
1.34937 0.744948
1.3415 0.389874
1.33371 0.247771
1.32602 0.18152
1.31841 0.153725
1.31089 0.160317
1.30346 0.247453
1.29611 1.00327
1.28884 4.31465
1.28166 0.357207
1.27455 0.148382
1.26752 0.0996365
1.26057 0.0862893
1.2537 0.0909425
1.2469 0.117545
1.24017 0.198623
1.23352 0.533337
1.22694 5.87457
1.22043 2.05323
1.21398 0.361214
1.20761 0.153402
1.2013 0.0912686
1.19506 0.0667173
1.18888 0.0587402
1.18277 0.0664759
1.17672 0.119752
1.17073 0.736732
1.1648 0.809419
1.15893 0.114629
1.15312 0.0513879
1.14737 0.033474
1.14168 0.0263822
1.13604 0.0240694
1.13046 0.0267415
1.12493 0.0470468
1.11946 0.478265
1.11404 0.108555
1.10867 0.030881
1.10336 0.0207167
1.09809 0.0188032
1.09288 0.020637
1.08771 0.0280094
1.0826 0.0544877
1.07753 0.263227
1.07251 0.914625
1.06753 0.0828815
1.06261 0.0361442
1.05772 0.0270224
1.05289 0.0281303
1.04809 0.0393496
1.04334 0.0807107
1.03864 0.37088
1.03397 2.53617
1.02935 0.155695
1.02477 0.0517343
1.02023 0.0272796
1.01573 0.0178604
1.01127 0.0132651
1.00685 0.010707
1.00247 0.00918219
0.998123 0.00827015
0.993817 0.0077923
0.989547 0.00770938
0.985315 0.00813118
0.981119 0.00950464
0.976958 0.0136244
0.972833 0.0327747
0.968743 0.610972
0.964687 0.0526637
0.960665 0.0184055
0.956677 0.0147051
0.952722 0.0170855
0.9488 0.0268188
0.94491 0.0649978
0.941052 0.51749
0.937225 0.404305
0.93343 0.0604752
0.929666 0.0274705
0.925931 0.0202607
0.922227 0.022342
0.918553 0.0413505
0.914908 0.234563
0.911292 0.400775
0.907705 0.047652
0.904146 0.0210817
0.900614 0.0153325
0.897111 0.0163631
0.893635 0.0293775
0.890186 0.184978
0.886763 0.187375
0.883367 0.0286262
0.879997 0.0146987
0.876653 0.012312
0.873334 0.0152681
0.870041 0.0340267
0.866772 0.452578
0.863528 0.0803762
0.860308 0.0211587
0.857113 0.0144291
0.853941 0.0160997
0.850793 0.0284365
0.847668 0.113125
0.844566 1.13661
0.841487 0.0607602
0.838431 0.0226401
0.835396 0.0162673
0.832384 0.0194398
0.829394 0.0452534
0.826425 0.618197
0.823477 0.113108
0.820551 0.0244849
0.817645 0.0118418
0.81476 0.00785467
0.811896 0.00621395
0.809052 0.00555705
0.806228 0.0055162
0.803423 0.00610057
0.800638 0.00771143
0.797873 0.0118363
0.795127 0.0255515
0.792399 0.130299
0.789691 0.502817
0.787001 0.0414129
0.78433 0.0163485
0.781677 0.0115883
0.779041 0.014085
0.776424 0.048243
0.773824 0.211719
0.771242 0.0198733
0.768677 0.0114988
0.76613 0.0130395
0.763599 0.0256807
0.761085 0.140088
0.758588 0.347694
0.756107 0.034433
0.753643 0.014
0.751194 0.010085
0.748762 0.0137814
0.746346 0.0877248
0.743945 0.0555881
0.74156 0.0101542
0.73919 0.00515861
0.736835 0.00365656
0.734496 0.00305499
0.732171 0.00285287
0.729861 0.00295298
0.727566 0.00346481
0.725286 0.00490766
0.723019 0.00977613
0.720767 0.0455867
0.71853 0.214924
0.716306 0.0167122
0.714096 0.0071166
0.7119 0.00612852
0.709717 0.0115911
0.707548 0.159817
0.705392 0.0240133
0.703249 0.00582237
0.70112 0.00304879
0.699004 0.00211895
0.6969 0.00169763
0.694809 0.00148808
0.692731 0.00140848
0.690665 0.00147244
0.688612 0.00188238
0.686571 0.00440547
0.684542 0.0821231
0.682526 0.0040513
0.680521 0.00198068
0.678528 0.00197241
0.676547 0.00374359
0.674577 0.0498776
0.67262 0.00734197
0.670673 0.0022637
0.668738 0.00173413
0.666814 0.00249382
0.664902 0.0169997
0.663 0.0080953
0.66111 0.00191712
0.65923 0.00128747
0.657361 0.00147319
0.655503 0.00613251
0.653655 0.00546255
0.651818 0.00124896
0.649991 0.000854734
0.648175 0.000851409
0.646369 0.00220589
0.644573 0.00227025
0.642787 0.000731224
0.641011 0.000587335
0.639245 0.000584953
0.637489 0.00116493
0.635743 0.0010078
0.634006 0.000521873
0.632279 0.00047662
0.630561 0.000509363
0.628853 0.00136671
0.627154 0.000760128
0.625464 0.000446276
0.623784 0.000401265
0.622113 0.000382675
0.620451 0.000371048
0.618797 0.000362242
0.617153 0.000354939
0.615517 0.000348626
0.613891 0.00034312
0.612273 0.000338459
0.610663 0.000335021
0.609062 0.000334205
0.60747 0.000342714
0.605886 0.000439504
0.60431 0.00073623
0.602743 0.00034677
0.601184 0.000326545
0.599633 0.000343178
0.59809 0.000766586
0.596555 0.000442028
0.595028 0.000315926
0.593509 0.000299409
0.591998 0.000306125
0.590495 0.000698439
0.588999 0.000292974
0.587511 0.000278973
0.586031 0.000277137
0.584558 0.000313261
0.583093 0.000309003
0.581635 0.000271539
0.580185 0.000274327
0.578742 0.000319752
0.577306 0.00196345
0.576162 0.000347427