File: data/xrd/rs_1.44_xrd.dat
2.29256 0.159988
2.26987 0.735827
2.24764 7.32662
2.22583 0.372168
2.20444 0.114905
2.18346 0.0574657
2.16288 0.0362541
2.14268 0.0264463
2.12285 0.0214251
2.10339 0.0188678
2.08428 0.0178563
2.06552 0.0180855
2.04709 0.0196688
2.02899 0.0232836
2.01121 0.0309573
1.99373 0.0494991
1.97656 0.112692
1.95968 0.686421
1.94309 1.24671
1.92677 0.140948
1.91073 0.0589695
1.89496 0.03854
1.87944 0.0318148
1.86417 0.0303092
1.84915 0.0318805
1.83437 0.0362929
1.81983 0.0445469
1.80552 0.0595917
1.79142 0.0895547
1.77755 0.161979
1.76389 0.421954
1.75044 3.3485
1.7372 2.94122
1.72415 0.409259
1.7113 0.169857
1.69863 0.106447
1.68616 0.0853329
1.67387 0.0816019
1.66175 0.0897239
1.64981 0.111562
1.63804 0.157361
1.62644 0.259801
1.615 0.549754
1.60372 2.00197
1.5926 53.4929
1.58163 2.38632
1.57081 0.599757
1.56014 0.273448
1.54961 0.161036
1.53923 0.110091
1.52898 0.0833966
1.51887 0.0683406
1.50889 0.059746
1.49904 0.0552385
1.48932 0.0536937
1.47973 0.0546506
1.47026 0.0580911
1.46091 0.0644053
1.45168 0.0745054
1.44256 0.0901546
1.43356 0.114743
1.42467 0.155198
1.41589 0.227277
1.40722 0.373246
1.39865 0.74051
1.39019 2.16695
1.38183 23.5864
1.37357 9.33075
1.36541 1.53213
1.35734 0.605178
1.34937 0.328962
1.3415 0.214065
1.33371 0.160013
1.32602 0.139076
1.31841 0.152521
1.31089 0.267179
1.30346 1.72786
1.29611 1.48463
1.28884 0.236573
1.28166 0.115408
1.27455 0.0834741
1.26752 0.0759175
1.26057 0.0837447
1.2537 0.114764
1.2469 0.213953
1.24017 0.726979
1.23352 19.0071
1.22694 0.855128
1.22043 0.224448
1.21398 0.109067
1.20761 0.0701693
1.2013 0.0548155
1.19506 0.052375
1.18888 0.0680057
1.18277 0.165149
1.17672 3.1759
1.17073 0.26925
1.1648 0.0709343
1.15893 0.0377698
1.15312 0.0265699
1.14737 0.0219624
1.14168 0.0210615
1.13604 0.0260224
1.13046 0.0677196
1.12493 0.666713
1.11946 0.0418882
1.11404 0.0204877
1.10867 0.0164385
1.10336 0.0164132
1.09809 0.0196635
1.09288 0.0305058
1.08771 0.0802992
1.0826 1.3627
1.07753 0.161137
1.07251 0.0420823
1.06753 0.0255008
1.06261 0.023143
1.05772 0.0283101
1.05289 0.0478141
1.04809 0.137151
1.04334 2.20781
1.03864 0.323358
1.03397 0.0685198
1.02935 0.0308301
1.02477 0.0186308
1.02023 0.0131962
1.01573 0.0103267
1.01127 0.00866408
1.00685 0.00767153
1.00247 0.00711973
0.998123 0.0069312
0.993817 0.00715361
0.989547 0.00805603
0.985315 0.0106442
0.981119 0.0202663
0.976958 0.127314
0.972833 0.116183
0.968743 0.0213239
0.964687 0.0137935
0.960665 0.0142938
0.956677 0.0202315
0.952722 0.0415802
0.9488 0.192044
0.94491 1.18795
0.941052 0.0784846
0.937225 0.0289846
0.93343 0.0189505
0.929666 0.0186401
0.925931 0.0293913
0.922227 0.110131
0.918553 1.0698
0.914908 0.0581915
0.911292 0.0213625
0.907705 0.0140388
0.904146 0.0135806
0.900614 0.0210061
0.897111 0.0878332
0.893635 0.339966
0.890186 0.0302379
0.886763 0.0136603
0.883367 0.0106881
0.879997 0.0123354
0.876653 0.0241269
0.873334 0.196573
0.870041 0.0990789
0.866772 0.0203326
0.863528 0.0129019
0.860308 0.0138073
0.857113 0.0231675
0.853941 0.0811343
0.850793 1.56753
0.847668 0.0636489
0.844566 0.021598
0.841487 0.014862
0.838431 0.0171451
0.835396 0.0378792
0.832384 0.425531
0.829394 0.118275
0.826425 0.0234929
0.823477 0.0111131
0.820551 0.00732888
0.817645 0.00580968
0.81476 0.00523232
0.811896 0.00525118
0.809052 0.00589114
0.806228 0.00757609
0.803423 0.0118645
0.800638 0.0262699
0.797873 0.14141
0.795127 0.442801
0.792399 0.0397747
0.789691 0.0159142
0.787001 0.0113556
0.78433 0.0141564
0.781677 0.054595
0.779041 0.146289
0.776424 0.0175974
0.773824 0.0109264
0.771242 0.0130284
0.768677 0.0275577
0.76613 0.188152
0.763599 0.21361
0.761085 0.0283145
0.758588 0.0124045
0.756107 0.00943367
0.753643 0.0143969
0.751194 0.148345
0.748762 0.0328763
0.746346 0.00798509
0.743945 0.00441703
0.74156 0.00326351
0.73919 0.00280235
0.736835 0.00268094
0.734496 0.00285264
0.732171 0.0034782
0.729861 0.00524627
0.727566 0.0118705
0.725286 0.0858167
0.723019 0.0797361
0.720767 0.0119882
0.71853 0.00623562
0.716306 0.00645418
0.714096 0.0169658
0.7119 0.337081
0.709717 0.0138156
0.707548 0.00454884
0.705392 0.00262126
0.703249 0.00190445
0.70112 0.00156969
0.699004 0.00141341
0.6969 0.00138919
0.694809 0.00156001
0.692731 0.00237057
0.690665 0.0097934
0.688612 0.0210448
0.686571 0.00294398
0.684542 0.00189348
0.682526 0.00226218
0.680521 0.00660828
0.678528 0.0604851
0.676547 0.00381668
0.674577 0.00188417
0.67262 0.00187001
0.670673 0.00423191
0.668738 0.0797671
0.666814 0.0036622
0.664902 0.00154769
0.663 0.00130843
0.66111 0.002249
0.65923 0.041197
0.657361 0.0022574
0.655503 0.00101105
0.653655 0.000827828
0.651818 0.00111781
0.649991 0.014601
0.648175 0.00106209
0.646369 0.000633152
0.644573 0.000569869
0.642787 0.000718129
0.641011 0.00566129
0.639245 0.000628596
0.637489 0.000486574
0.635743 0.000493071
0.634006 0.000787446
0.632279 0.00363219
0.630561 0.000543747
0.628853 0.00040991
0.627154 0.000373162
0.625464 0.000354989
0.623784 0.000343041
0.622113 0.000333901
0.620451 0.000326296
0.618797 0.000319653
0.617153 0.000313679
0.615517 0.000308215
0.613891 0.000303174
0.612273 0.000298542
0.610663 0.000294564
0.609062 0.000303389
0.60747 0.000287325
0.605886 0.000284949
0.60431 0.00028772
0.602743 0.000339795
0.601184 0.000439184
0.599633 0.000282306
0.59809 0.000269927
0.596555 0.000269051
0.595028 0.000384552
0.593509 0.000270659
0.591998 0.000256224
0.590495 0.000254621
0.588999 0.000272949
0.587511 0.0003736
0.586031 0.000254502
0.584558 0.000254301
0.583093 0.000288189
0.581635 0.00125117
0.580185 0.000344968
0.578742 0.000249221
0.577306 0.000232392
0.576162 0.000226393